 B4C 60.nm on Si at 8000.eV, P=0.
 Angle (deg), Reflectivity, Transmission into substrate
   0.000000  1.00000  0.000000
   2.004008E-03  0.999981  2.082957E-12
   4.008016E-03  0.999962  4.175860E-12
   6.012024E-03  0.999943  6.288779E-12
   8.016032E-03  0.999925  8.431943E-12
   1.002004E-02  0.999906  1.061586E-11
   1.202405E-02  0.999887  1.285140E-11
   1.402806E-02  0.999868  1.514976E-11
   1.603206E-02  0.999849  1.752286E-11
   1.803607E-02  0.999830  1.998307E-11
   2.004008E-02  0.999811  2.254373E-11
   2.204409E-02  0.999792  2.521886E-11
   2.404810E-02  0.999773  2.802369E-11
   2.605210E-02  0.999754  3.097451E-11
   2.805611E-02  0.999735  3.408905E-11
   3.006012E-02  0.999715  3.738642E-11
   3.206413E-02  0.999696  4.088755E-11
   3.406814E-02  0.999676  4.461542E-11
   3.607215E-02  0.999657  4.859511E-11
   3.807615E-02  0.999637  5.285412E-11
   4.008016E-02  0.999618  5.742311E-11
   4.208417E-02  0.999598  6.233571E-11
   4.408818E-02  0.999578  6.762917E-11
   4.609219E-02  0.999558  7.334499E-11
   4.809619E-02  0.999538  7.952931E-11
   5.010020E-02  0.999518  8.623333E-11
   5.210421E-02  0.999497  9.351434E-11
   5.410822E-02  0.999477  1.014367E-10
   5.611223E-02  0.999456  1.100721E-10
   5.811623E-02  0.999435  1.195010E-10
   6.012024E-02  0.999414  1.298145E-10
   6.212425E-02  0.999393  1.411137E-10
   6.412826E-02  0.999372  1.535148E-10
   6.613226E-02  0.999351  1.671471E-10
   6.813627E-02  0.999329  1.821576E-10
   7.014028E-02  0.999307  1.987134E-10
   7.214429E-02  0.999285  2.170034E-10
   7.414830E-02  0.999263  2.372428E-10
   7.615230E-02  0.999241  2.596772E-10
   7.815631E-02  0.999218  2.845857E-10
   8.016032E-02  0.999195  3.122878E-10
   8.216433E-02  0.999172  3.431515E-10
   8.416834E-02  0.999148  3.775948E-10
   8.617234E-02  0.999125  4.161012E-10
   8.817635E-02  0.999101  4.592275E-10
   9.018036E-02  0.999076  5.076155E-10
   9.218437E-02  0.999052  5.620043E-10
   9.418838E-02  0.999027  6.232563E-10
   9.619239E-02  0.999002  6.923670E-10
   9.819639E-02  0.998976  7.704940E-10
   0.100200  0.998950  8.589932E-10
   0.102204  0.998923  9.594440E-10
   0.104208  0.998897  1.073695E-09
   0.106212  0.998869  1.203917E-09
   0.108216  0.998842  1.352658E-09
   0.110220  0.998814  1.522938E-09
   0.112224  0.998785  1.718310E-09
   0.114228  0.998756  1.942990E-09
   0.116232  0.998726  2.201998E-09
   0.118236  0.998696  2.501295E-09
   0.120240  0.998665  2.848022E-09
   0.122244  0.998634  3.250722E-09
   0.124248  0.998602  3.719666E-09
   0.126253  0.998569  4.267239E-09
   0.128257  0.998535  4.908402E-09
   0.130261  0.998501  5.661315E-09
   0.132265  0.998466  6.548069E-09
   0.134269  0.998430  7.595616E-09
   0.136273  0.998393  8.837035E-09
   0.138277  0.998356  1.031298E-08
   0.140281  0.998317  1.207360E-08
   0.142285  0.998277  1.418111E-08
   0.144289  0.998236  1.671294E-08
   0.146293  0.998194  1.976570E-08
   0.148297  0.998150  2.346082E-08
   0.150301  0.998106  2.795135E-08
   0.152305  0.998059  3.343105E-08
   0.154309  0.998011  4.014676E-08
   0.156313  0.997962  4.841425E-08
   0.158317  0.997910  5.863963E-08
   0.160321  0.997857  7.134846E-08
   0.162325  0.997801  8.722443E-08
   0.164329  0.997744  1.071634E-07
   0.166333  0.997683  1.323452E-07
   0.168337  0.997621  1.643362E-07
   0.170341  0.997555  2.052296E-07
   0.172345  0.997486  2.578448E-07
   0.174349  0.997413  3.260114E-07
   0.176353  0.997337  4.149720E-07
   0.178357  0.997256  5.319753E-07
   0.180361  0.997171  6.871356E-07
   0.182365  0.997080  8.947238E-07
   0.184369  0.996983  1.175096E-06
   0.186373  0.996880  1.557644E-06
   0.188377  0.996769  2.085375E-06
   0.190381  0.996649  2.822128E-06
   0.192385  0.996518  3.864137E-06
   0.194389  0.996377  5.359063E-06
   0.196393  0.996221  7.537752E-06
   0.198397  0.996048  1.076897E-05
   0.200401  0.995854  1.565581E-05
   0.202405  0.995635  2.321217E-05
   0.204409  0.995383  3.519550E-05
   0.206413  0.995088  5.476459E-05
   0.208417  0.994734  8.784170E-05
   0.210421  0.994294  1.461086E-04
   0.212425  0.993722  2.540779E-04
   0.214429  0.992925  4.673513E-04
   0.216433  0.991702  9.254159E-04
   0.218437  0.989537  2.028703E-03
   0.220441  0.984798  5.161498E-03
   0.222445  0.970814  1.639108E-02
   0.224449  0.917640  6.441128E-02
   0.226453  0.765086  0.209602
   0.228457  0.544265  0.425311
   0.230461  0.377083  0.592399
   0.232465  0.300024  0.672107
   0.234469  0.273524  0.701476
   0.236473  0.263619  0.713634
   0.238477  0.255492  0.723374
   0.240481  0.244506  0.735491
   0.242485  0.230057  0.750745
   0.244489  0.212963  0.768436
   0.246493  0.194456  0.787416
   0.248497  0.175769  0.806508
   0.250501  0.157954  0.824698
   0.252505  0.141794  0.841223
   0.254509  0.127773  0.855611
   0.256513  0.116088  0.867670
   0.258517  0.106691  0.877444
   0.260521  9.935603E-02  0.885156
   0.262525  9.374636E-02  0.891137
   0.264529  8.947656E-02  0.895767
   0.266533  8.616282E-02  0.899425
   0.268537  8.345829E-02  0.902456
   0.270541  8.107246E-02  0.905147
   0.272545  7.878084E-02  0.907724
   0.274549  7.642462E-02  0.910344
   0.276553  7.390585E-02  0.913108
   0.278557  7.117901E-02  0.916062
   0.280561  6.824097E-02  0.919212
   0.282565  6.512090E-02  0.922530
   0.284569  6.187068E-02  0.925967
   0.286573  5.855568E-02  0.929459
   0.288577  5.524697E-02  0.932937
   0.290581  5.201486E-02  0.936332
   0.292585  4.892341E-02  0.939582
   0.294589  4.602657E-02  0.942633
   0.296593  4.336565E-02  0.945445
   0.298597  4.096785E-02  0.947991
   0.300601  3.884620E-02  0.950258
   0.302605  3.700043E-02  0.952247
   0.304609  3.541826E-02  0.953969
   0.306613  3.407761E-02  0.955448
   0.308617  3.294909E-02  0.956711
   0.310621  3.199832E-02  0.957794
   0.312625  3.118853E-02  0.958732
   0.314629  3.048274E-02  0.959563
   0.316633  2.984560E-02  0.960321
   0.318637  2.924510E-02  0.961039
   0.320641  2.865362E-02  0.961744
   0.322645  2.804877E-02  0.962458
   0.324649  2.741375E-02  0.963199
   0.326653  2.673745E-02  0.963977
   0.328657  2.601415E-02  0.964799
   0.330661  2.524318E-02  0.965666
   0.332665  2.442820E-02  0.966573
   0.334669  2.357654E-02  0.967514
   0.336673  2.269818E-02  0.968480
   0.338677  2.180514E-02  0.969458
   0.340681  2.091040E-02  0.970435
   0.342685  2.002722E-02  0.971399
   0.344689  1.916837E-02  0.972337
   0.346693  1.834553E-02  0.973238
   0.348697  1.756872E-02  0.974091
   0.350701  1.684594E-02  0.974889
   0.352705  1.618302E-02  0.975626
   0.354709  1.558334E-02  0.976299
   0.356713  1.504796E-02  0.976906
   0.358717  1.457565E-02  0.977449
   0.360721  1.416324E-02  0.977931
   0.362725  1.380571E-02  0.978357
   0.364729  1.349672E-02  0.978733
   0.366733  1.322885E-02  0.979067
   0.368737  1.299407E-02  0.979367
   0.370741  1.278407E-02  0.979641
   0.372745  1.259065E-02  0.979897
   0.374750  1.240607E-02  0.980143
   0.376754  1.222326E-02  0.980386
   0.378758  1.203610E-02  0.980632
   0.380762  1.183955E-02  0.980886
   0.382766  1.162982E-02  0.981152
   0.384770  1.140434E-02  0.981432
   0.386774  1.116183E-02  0.981729
   0.388778  1.090218E-02  0.982042
   0.390782  1.062638E-02  0.982369
   0.392786  1.033640E-02  0.982710
   0.394790  1.003501E-02  0.983061
   0.396794  9.725587E-03  0.983419
   0.398798  9.411933E-03  0.983781
   0.400802  9.098100E-03  0.984142
   0.402806  8.788160E-03  0.984499
   0.404810  8.486045E-03  0.984847
   0.406814  8.195391E-03  0.985183
   0.408818  7.919376E-03  0.985504
   0.410822  7.660733E-03  0.985807
   0.412826  7.421424E-03  0.986089
   0.414830  7.202842E-03  0.986351
   0.416834  7.005630E-03  0.986591
   0.418838  6.829780E-03  0.986809
   0.420842  6.674606E-03  0.987006
   0.422846  6.538857E-03  0.987182
   0.424850  6.420742E-03  0.987341
   0.426854  6.318079E-03  0.987484
   0.428858  6.228355E-03  0.987613
   0.430862  6.148858E-03  0.987731
   0.432866  6.076786E-03  0.987842
   0.434870  6.009348E-03  0.987947
   0.436874  5.943867E-03  0.988050
   0.438878  5.877883E-03  0.988152
   0.440882  5.809207E-03  0.988257
   0.442886  5.735995E-03  0.988366
   0.444890  5.656810E-03  0.988480
   0.446894  5.570622E-03  0.988601
   0.448898  5.476825E-03  0.988729
   0.450902  5.375259E-03  0.988864
   0.452906  5.266154E-03  0.989006
   0.454910  5.150125E-03  0.989155
   0.456914  5.028102E-03  0.989309
   0.458918  4.901297E-03  0.989467
   0.460922  4.771124E-03  0.989629
   0.462926  4.639167E-03  0.989792
   0.464930  4.507039E-03  0.989954
   0.466934  4.376420E-03  0.990115
   0.468938  4.248891E-03  0.990272
   0.470942  4.125950E-03  0.990425
   0.472946  4.008929E-03  0.990571
   0.474950  3.898945E-03  0.990710
   0.476954  3.796887E-03  0.990840
   0.478958  3.703374E-03  0.990962
   0.480962  3.618774E-03  0.991075
   0.482966  3.543162E-03  0.991178
   0.484970  3.476344E-03  0.991273
   0.486974  3.417888E-03  0.991358
   0.488978  3.367136E-03  0.991436
   0.490982  3.323238E-03  0.991507
   0.492986  3.285194E-03  0.991571
   0.494990  3.251885E-03  0.991630
   0.496994  3.222123E-03  0.991686
   0.498998  3.194706E-03  0.991739
   0.501002  3.168432E-03  0.991790
   0.503006  3.142176E-03  0.991842
   0.505010  3.114885E-03  0.991893
   0.507014  3.085647E-03  0.991947
   0.509018  3.053688E-03  0.992003
   0.511022  3.018412E-03  0.992062
   0.513026  2.979399E-03  0.992125
   0.515030  2.936417E-03  0.992191
   0.517034  2.889435E-03  0.992261
   0.519038  2.838563E-03  0.992334
   0.521042  2.784118E-03  0.992411
   0.523046  2.726550E-03  0.992491
   0.525050  2.666411E-03  0.992573
   0.527054  2.604405E-03  0.992657
   0.529058  2.541245E-03  0.992741
   0.531062  2.477747E-03  0.992826
   0.533066  2.414671E-03  0.992911
   0.535070  2.352838E-03  0.992993
   0.537074  2.292954E-03  0.993074
   0.539078  2.235719E-03  0.993152
   0.541082  2.181696E-03  0.993226
   0.543086  2.131370E-03  0.993297
   0.545090  2.085094E-03  0.993363
   0.547094  2.043113E-03  0.993425
   0.549098  2.005517E-03  0.993482
   0.551102  1.972282E-03  0.993535
   0.553106  1.943261E-03  0.993584
   0.555110  1.918184E-03  0.993628
   0.557114  1.896682E-03  0.993668
   0.559118  1.878299E-03  0.993706
   0.561122  1.862511E-03  0.993740
   0.563126  1.848748E-03  0.993773
   0.565130  1.836412E-03  0.993803
   0.567134  1.824891E-03  0.993833
   0.569138  1.813593E-03  0.993862
   0.571142  1.801946E-03  0.993892
   0.573146  1.789451E-03  0.993922
   0.575150  1.775644E-03  0.993953
   0.577154  1.760162E-03  0.993986
   0.579158  1.742709E-03  0.994021
   0.581162  1.723095E-03  0.994057
   0.583166  1.701214E-03  0.994096
   0.585170  1.677064E-03  0.994137
   0.587174  1.650726E-03  0.994180
   0.589178  1.622369E-03  0.994225
   0.591182  1.592238E-03  0.994271
   0.593186  1.560647E-03  0.994319
   0.595190  1.527955E-03  0.994367
   0.597194  1.494556E-03  0.994417
   0.599198  1.460887E-03  0.994466
   0.601202  1.427367E-03  0.994515
   0.603206  1.394431E-03  0.994564
   0.605210  1.362478E-03  0.994611
   0.607214  1.331880E-03  0.994657
   0.609218  1.302972E-03  0.994701
   0.611222  1.276020E-03  0.994743
   0.613226  1.251230E-03  0.994783
   0.615230  1.228760E-03  0.994820
   0.617234  1.208670E-03  0.994855
   0.619238  1.190971E-03  0.994887
   0.621242  1.175599E-03  0.994917
   0.623246  1.162425E-03  0.994945
   0.625251  1.151262E-03  0.994970
   0.627255  1.141875E-03  0.994994
   0.629259  1.133985E-03  0.995016
   0.631263  1.127281E-03  0.995036
   0.633267  1.121437E-03  0.995056
   0.635271  1.116110E-03  0.995075
   0.637275  1.110964E-03  0.995094
   0.639279  1.105676E-03  0.995113
   0.641283  1.099943E-03  0.995132
   0.643287  1.093492E-03  0.995152
   0.645291  1.086094E-03  0.995172
   0.647295  1.077562E-03  0.995194
   0.649299  1.067756E-03  0.995216
   0.651303  1.056594E-03  0.995241
   0.653307  1.044046E-03  0.995266
   0.655311  1.030131E-03  0.995293
   0.657315  1.014925E-03  0.995320
   0.659319  9.985440E-04  0.995349
   0.661323  9.811473E-04  0.995379
   0.663327  9.629223E-04  0.995410
   0.665331  9.441089E-04  0.995441
   0.667335  9.249324E-04  0.995472
   0.669339  9.056479E-04  0.995503
   0.671343  8.865105E-04  0.995534
   0.673347  8.677734E-04  0.995565
   0.675351  8.496618E-04  0.995595
   0.677355  8.323974E-04  0.995624
   0.679359  8.161633E-04  0.995652
   0.681363  8.011155E-04  0.995679
   0.683367  7.873635E-04  0.995704
   0.685371  7.749928E-04  0.995728
   0.687375  7.640345E-04  0.995750
   0.689379  7.544886E-04  0.995771
   0.691383  7.463096E-04  0.995790
   0.693387  7.394114E-04  0.995809
   0.695391  7.336818E-04  0.995825
   0.697395  7.289735E-04  0.995841
   0.699399  7.251174E-04  0.995856
   0.701403  7.219278E-04  0.995870
   0.703407  7.192013E-04  0.995884
   0.705411  7.167358E-04  0.995897
   0.707415  7.143274E-04  0.995910
   0.709419  7.117786E-04  0.995923
   0.711423  7.089074E-04  0.995936
   0.713427  7.055529E-04  0.995950
   0.715431  7.015726E-04  0.995964
   0.717435  6.968533E-04  0.995979
   0.719439  6.913131E-04  0.995995
   0.721443  6.849007E-04  0.996012
   0.723447  6.775981E-04  0.996029
   0.725451  6.694152E-04  0.996047
   0.727455  6.604012E-04  0.996066
   0.729459  6.506277E-04  0.996086
   0.731463  6.401896E-04  0.996106
   0.733467  6.292085E-04  0.996127
   0.735471  6.178257E-04  0.996148
   0.737475  6.061837E-04  0.996169
   0.739479  5.944481E-04  0.996191
   0.741483  5.827727E-04  0.996212
   0.743487  5.713149E-04  0.996233
   0.745491  5.602276E-04  0.996253
   0.747495  5.496474E-04  0.996273
   0.749499  5.396904E-04  0.996292
   0.751503  5.304620E-04  0.996311
   0.753507  5.220370E-04  0.996328
   0.755511  5.144715E-04  0.996345
   0.757515  5.077936E-04  0.996361
   0.759519  5.020064E-04  0.996376
   0.761523  4.970887E-04  0.996390
   0.763527  4.929919E-04  0.996402
   0.765531  4.896473E-04  0.996415
   0.767535  4.869676E-04  0.996427
   0.769539  4.848473E-04  0.996437
   0.771543  4.831707E-04  0.996448
   0.773547  4.818121E-04  0.996458
   0.775551  4.806379E-04  0.996467
   0.777555  4.795204E-04  0.996477
   0.779559  4.783303E-04  0.996487
   0.781563  4.769489E-04  0.996497
   0.783567  4.752635E-04  0.996507
   0.785571  4.731823E-04  0.996518
   0.787575  4.706248E-04  0.996528
   0.789579  4.675301E-04  0.996540
   0.791583  4.638607E-04  0.996551
   0.793587  4.595927E-04  0.996564
   0.795591  4.547322E-04  0.996577
   0.797595  4.492981E-04  0.996590
   0.799599  4.433328E-04  0.996604
   0.801603  4.368932E-04  0.996619
   0.803607  4.300530E-04  0.996634
   0.805611  4.228993E-04  0.996649
   0.807615  4.155272E-04  0.996664
   0.809619  4.080379E-04  0.996679
   0.811623  4.005374E-04  0.996694
   0.813627  3.931304E-04  0.996709
   0.815631  3.859219E-04  0.996724
   0.817635  3.789989E-04  0.996739
   0.819639  3.724512E-04  0.996753
   0.821643  3.663528E-04  0.996767
   0.823647  3.607607E-04  0.996780
   0.825651  3.557210E-04  0.996792
   0.827655  3.512614E-04  0.996804
   0.829659  3.473917E-04  0.996815
   0.831663  3.441058E-04  0.996826
   0.833667  3.413817E-04  0.996836
   0.835671  3.391796E-04  0.996846
   0.837675  3.374495E-04  0.996855
   0.839679  3.361257E-04  0.996863
   0.841683  3.351345E-04  0.996871
   0.843687  3.343963E-04  0.996879
   0.845691  3.338219E-04  0.996887
   0.847695  3.333252E-04  0.996895
   0.849699  3.328184E-04  0.996902
   0.851703  3.322189E-04  0.996909
   0.853707  3.314451E-04  0.996917
   0.855711  3.304302E-04  0.996925
   0.857715  3.291130E-04  0.996933
   0.859719  3.274438E-04  0.996942
   0.861723  3.253899E-04  0.996951
   0.863727  3.229276E-04  0.996960
   0.865731  3.200487E-04  0.996969
   0.867736  3.167610E-04  0.996979
   0.869739  3.130844E-04  0.996990
   0.871744  3.090499E-04  0.997000
   0.873748  3.047014E-04  0.997012
   0.875751  3.000937E-04  0.997022
   0.877756  2.952866E-04  0.997034
   0.879760  2.903479E-04  0.997045
   0.881764  2.853485E-04  0.997057
   0.883768  2.803594E-04  0.997068
   0.885772  2.754568E-04  0.997080
   0.887776  2.707060E-04  0.997090
   0.889780  2.661693E-04  0.997102
   0.891784  2.619036E-04  0.997112
   0.893788  2.579596E-04  0.997122
   0.895792  2.543725E-04  0.997132
   0.897796  2.511714E-04  0.997141
   0.899800  2.483726E-04  0.997150
   0.901804  2.459808E-04  0.997159
   0.903808  2.439866E-04  0.997167
   0.905812  2.423734E-04  0.997175
   0.907816  2.411116E-04  0.997182
   0.909820  2.401634E-04  0.997189
   0.911824  2.394818E-04  0.997196
   0.913828  2.390151E-04  0.997202
   0.915832  2.387050E-04  0.997208
   0.917836  2.384910E-04  0.997215
   0.919840  2.383136E-04  0.997221
   0.921844  2.381097E-04  0.997227
   0.923848  2.378221E-04  0.997233
   0.925852  2.373990E-04  0.997239
   0.927856  2.367902E-04  0.997246
   0.929860  2.359568E-04  0.997252
   0.931864  2.348649E-04  0.997259
   0.933868  2.334931E-04  0.997266
   0.935872  2.318262E-04  0.997274
   0.937876  2.298623E-04  0.997281
   0.939880  2.276057E-04  0.997289
   0.941884  2.250768E-04  0.997297
   0.943888  2.222922E-04  0.997305
   0.945892  2.192884E-04  0.997314
   0.947896  2.161061E-04  0.997323
   0.949900  2.127809E-04  0.997331
   0.951904  2.093694E-04  0.997340
   0.953908  2.059222E-04  0.997349
   0.955912  2.024857E-04  0.997358
   0.957916  1.991153E-04  0.997367
   0.959920  1.958548E-04  0.997375
   0.961924  1.927516E-04  0.997384
   0.963928  1.898424E-04  0.997392
   0.965932  1.871658E-04  0.997400
   0.967936  1.847449E-04  0.997408
   0.969940  1.825993E-04  0.997415
   0.971944  1.807410E-04  0.997422
   0.973948  1.791707E-04  0.997429
   0.975952  1.778835E-04  0.997435
   0.977956  1.768658E-04  0.997442
   0.979960  1.760954E-04  0.997447
   0.981964  1.755467E-04  0.997453
   0.983968  1.751832E-04  0.997458
   0.985972  1.749699E-04  0.997464
   0.987976  1.748623E-04  0.997469
   0.989980  1.748201E-04  0.997474
   0.991984  1.747977E-04  0.997479
   0.993988  1.747516E-04  0.997484
   0.995992  1.746401E-04  0.997489
   0.997996  1.744251E-04  0.997494
   1.00000  1.740730E-04  0.997499
