 Ru 50.nm on Si at 15000.eV, P=0.
 Angle (deg), Reflectivity, Transmission into substrate
   0.000000  1.00000  0.000000
   2.004008E-03  0.999599  2.409453E-19
   4.008016E-03  0.999197  4.836280E-19
   6.012024E-03  0.998796  7.298993E-19
   8.016032E-03  0.998395  9.816647E-19
   1.002004E-02  0.997993  1.240901E-18
   1.202405E-02  0.997591  1.509690E-18
   1.402806E-02  0.997189  1.790240E-18
   1.603206E-02  0.996787  2.084919E-18
   1.803607E-02  0.996384  2.396310E-18
   2.004008E-02  0.995981  2.727237E-18
   2.204409E-02  0.995577  3.080757E-18
   2.404810E-02  0.995172  3.460344E-18
   2.605210E-02  0.994767  3.869814E-18
   2.805611E-02  0.994360  4.313451E-18
   3.006012E-02  0.993953  4.796082E-18
   3.206413E-02  0.993545  5.323175E-18
   3.406814E-02  0.993136  5.900920E-18
   3.607215E-02  0.992725  6.536443E-18
   3.807615E-02  0.992314  7.237787E-18
   4.008016E-02  0.991901  8.014232E-18
   4.208417E-02  0.991486  8.876489E-18
   4.408818E-02  0.991070  9.836882E-18
   4.609219E-02  0.990653  1.090969E-17
   4.809619E-02  0.990234  1.211152E-17
   5.010020E-02  0.989813  1.346174E-17
   5.210421E-02  0.989390  1.498284E-17
   5.410822E-02  0.988965  1.670137E-17
   5.611223E-02  0.988538  1.864854E-17
   5.811623E-02  0.988109  2.086104E-17
   6.012024E-02  0.987678  2.338244E-17
   6.212425E-02  0.987244  2.626452E-17
   6.412826E-02  0.986808  2.956879E-17
   6.613226E-02  0.986369  3.336918E-17
   6.813627E-02  0.985927  3.775435E-17
   7.014028E-02  0.985483  4.283171E-17
   7.214429E-02  0.985035  4.873102E-17
   7.414830E-02  0.984585  5.561080E-17
   7.615230E-02  0.984131  6.366495E-17
   7.815631E-02  0.983674  7.313263E-17
   8.016032E-02  0.983213  8.431030E-17
   8.216433E-02  0.982749  9.756848E-17
   8.416834E-02  0.982281  1.133708E-16
   8.617234E-02  0.981809  1.323084E-16
   8.817635E-02  0.981333  1.551340E-16
   9.018036E-02  0.980852  1.828213E-16
   9.218437E-02  0.980368  2.166423E-16
   9.418838E-02  0.979878  2.582819E-16
   9.619239E-02  0.979384  3.100070E-16
   9.819639E-02  0.978885  3.749139E-16
   0.100200  0.978381  4.573452E-16
   0.102204  0.977871  5.635311E-16
   0.104208  0.977356  7.027249E-16
   0.106212  0.976835  8.892675E-16
   0.108216  0.976308  1.146652E-15
   0.110220  0.975774  1.516499E-15
   0.112224  0.975234  2.081420E-15
   0.114228  0.974688  3.038038E-15
   0.116232  0.974134  5.044464E-15
   0.118236  0.973573  1.400731E-14
   0.120240  0.973004  7.858642E-14
   0.122244  0.972427  1.390098E-13
   0.124248  0.971842  2.038336E-13
   0.126253  0.971248  2.793513E-13
   0.128257  0.970645  3.700146E-13
   0.130261  0.970033  4.804312E-13
   0.132265  0.969411  6.159883E-13
   0.134269  0.968779  7.832788E-13
   0.136273  0.968135  9.905087E-13
   0.138277  0.967481  1.248005E-12
   0.140281  0.966815  1.568821E-12
   0.142285  0.966137  1.969556E-12
   0.144289  0.965446  2.471375E-12
   0.146293  0.964741  3.101349E-12
   0.148297  0.964022  3.894239E-12
   0.150301  0.963289  4.894858E-12
   0.152305  0.962540  6.161086E-12
   0.154309  0.961775  7.768056E-12
   0.156313  0.960992  9.813484E-12
   0.158317  0.960192  1.242513E-11
   0.160321  0.959373  1.577050E-11
   0.162325  0.958533  2.007005E-11
   0.164329  0.957672  2.561544E-11
   0.166333  0.956789  3.279336E-11
   0.168337  0.955883  4.211974E-11
   0.170341  0.954951  5.428526E-11
   0.172345  0.953993  7.021837E-11
   0.174349  0.953007  9.117494E-11
   0.176353  0.951990  1.188597E-10
   0.178357  0.950942  1.555999E-10
   0.180361  0.949860  2.045888E-10
   0.182365  0.948741  2.702340E-10
   0.184369  0.947583  3.586511E-10
   0.186373  0.946384  4.783753E-10
   0.188377  0.945140  6.413972E-10
   0.190381  0.943848  8.646695E-10
   0.192385  0.942503  1.172310E-09
   0.194389  0.941103  1.598886E-09
   0.196393  0.939641  2.194306E-09
   0.198397  0.938113  3.031180E-09
   0.200401  0.936513  4.215961E-09
   0.202405  0.934833  5.906143E-09
   0.204409  0.933067  8.336663E-09
   0.206413  0.931205  1.186146E-08
   0.208417  0.929237  1.701886E-08
   0.210421  0.927152  2.463660E-08
   0.212425  0.924936  3.600115E-08
   0.214429  0.922572  5.313612E-08
   0.216433  0.920043  7.926597E-08
   0.218437  0.917326  1.195962E-07
   0.220441  0.914394  1.826561E-07
   0.222445  0.911214  2.826432E-07
   0.224449  0.907747  4.435903E-07
   0.226453  0.903942  7.069341E-07
   0.228457  0.899738  1.145608E-06
   0.230461  0.895053  1.890786E-06
   0.232465  0.889783  3.184338E-06
   0.234469  0.883787  5.484492E-06
   0.236473  0.876875  9.686554E-06
   0.238477  0.868774  1.760104E-05
   0.240481  0.859090  3.303663E-05
   0.242485  0.847224  6.437700E-05
   0.244489  0.832216  1.310693E-04
   0.246493  0.812455  2.810436E-04
   0.248497  0.785059  6.409193E-04
   0.250501  0.744608  1.570829E-03
   0.252505  0.680972  4.157311E-03
   0.254509  0.580020  1.156287E-02
   0.256513  0.454575  2.965612E-02
   0.258517  0.399774  5.524684E-02
   0.260521  0.425210  7.417201E-02
   0.262525  0.426548  9.086941E-02
   0.264529  0.372956  0.115313
   0.266533  0.277765  0.151769
   0.268537  0.178969  0.195909
   0.270541  0.132119  0.232474
   0.272545  0.156516  0.248932
   0.274549  0.213001  0.250392
   0.276553  0.258202  0.249602
   0.278557  0.274314  0.254882
   0.280561  0.259995  0.269524
   0.282565  0.220265  0.293989
   0.284569  0.164158  0.326480
   0.286573  0.105498  0.362366
   0.288577  6.130852E-02  0.394419
   0.290581  4.474028E-02  0.415659
   0.292585  5.710487E-02  0.423530
   0.294589  8.794405E-02  0.421136
   0.296593  0.122959  0.414440
   0.298597  0.151109  0.408878
   0.300601  0.166566  0.407935
   0.302605  0.167582  0.413261
   0.304609  0.154998  0.425171
   0.306613  0.131412  0.442955
   0.308617  0.100911  0.464952
   0.310621  6.885894E-02  0.488594
   0.312625  4.122928E-02  0.510689
   0.314629  2.324944E-02  0.528142
   0.316633  1.777905E-02  0.538905
   0.318637  2.438243E-02  0.542675
   0.320641  3.974846E-02  0.540853
   0.322645  5.914703E-02  0.535864
   0.324649  7.797882E-02  0.530300
   0.326653  9.273715E-02  0.526307
   0.328657  0.101292  0.525348
   0.330661  0.102776  0.528190
   0.332665  9.735221E-02  0.534990
   0.334669  8.601205E-02  0.545383
   0.336673  7.042528E-02  0.558543
   0.338677  5.278520E-02  0.573257
   0.340681  3.558015E-02  0.588048
   0.342685  2.124540E-02  0.601377
   0.344689  1.172930E-02  0.611923
   0.346693  8.096846E-03  0.618853
   0.348697  1.032326E-02  0.621993
   0.350701  1.737184E-02  0.621832
   0.352705  2.751584E-02  0.619348
   0.354709  3.876759E-02  0.615754
   0.356713  4.926258E-02  0.612255
   0.358717  5.751399E-02  0.609864
   0.360721  6.252889E-02  0.609313
   0.362725  6.382504E-02  0.611018
   0.364729  6.139404E-02  0.615088
   0.366733  5.564342E-02  0.621354
   0.368737  4.732801E-02  0.629396
   0.370741  3.746958E-02  0.638594
   0.372745  2.724963E-02  0.648188
   0.374750  1.787670E-02  0.657368
   0.376754  1.042852E-02  0.665376
   0.378758  5.697532E-03  0.671618
   0.380762  4.073699E-03  0.675758
   0.382766  5.497532E-03  0.677758
   0.384770  9.496645E-03  0.677870
   0.386774  1.529384E-02  0.676575
   0.388778  2.195349E-02  0.674489
   0.390782  2.853003E-02  0.672258
   0.392786  3.418728E-02  0.670479
   0.394790  3.828083E-02  0.669634
   0.396794  4.039881E-02  0.670053
   0.398798  4.037340E-02  0.671902
   0.400802  3.827113E-02  0.675185
   0.402806  3.436776E-02  0.679751
   0.404810  2.911300E-02  0.685321
   0.406814  2.308239E-02  0.691509
   0.408818  1.691873E-02  0.697874
   0.410822  1.126435E-02  0.703952
   0.412826  6.687538E-03  0.709324
   0.414830  3.615845E-03  0.713654
   0.416834  2.285813E-03  0.716739
   0.418838  2.718707E-03  0.718525
   0.420842  4.728780E-03  0.719112
   0.422846  7.959966E-03  0.718726
   0.424850  1.194354E-02  0.717690
   0.426854  1.616350E-02  0.716369
   0.428858  2.012004E-02  0.715131
   0.430862  2.338087E-02  0.714302
   0.432866  2.561773E-02  0.714143
   0.434870  2.662796E-02  0.714825
   0.436874  2.634183E-02  0.716427
   0.438878  2.481895E-02  0.718930
   0.440882  2.223538E-02  0.722228
   0.442886  1.886267E-02  0.726138
   0.444890  1.504053E-02  0.730422
   0.446894  1.114318E-02  0.734806
   0.448898  7.542119E-03  0.739013
   0.450902  4.568238E-03  0.742787
   0.452906  2.477825E-03  0.745922
   0.454910  1.425985E-03  0.748284
   0.456914  1.453098E-03  0.749822
   0.458918  2.484876E-03  0.750572
   0.460922  4.346497E-03  0.750649
   0.462926  6.787750E-03  0.750228
   0.464930  9.515238E-03  0.749525
   0.466934  1.222525E-02  0.748767
   0.468938  1.463544E-02  0.748173
   0.470942  1.650983E-02  0.747930
   0.472946  1.767704E-02  0.748182
   0.474950  1.804122E-02  0.749015
   0.476954  1.758535E-02  0.750458
   0.478958  1.636837E-02  0.752480
   0.480962  1.451655E-02  0.754998
   0.482966  1.221025E-02  0.757884
   0.484970  9.666053E-03  0.760977
   0.486974  7.116660E-03  0.764101
   0.488978  4.788603E-03  0.767079
   0.490982  2.881227E-03  0.769753
   0.492986  1.547458E-03  0.771995
   0.494990  8.799320E-04  0.773722
   0.496994  9.037157E-04  0.774904
   0.498998  1.576185E-03  0.775562
   0.501002  2.794297E-03  0.775765
   0.503006  4.407984E-03  0.775622
   0.505010  6.237351E-03  0.775269
   0.507014  8.091798E-03  0.774853
   0.509018  9.788273E-03  0.774519
   0.511022  1.116775E-02  0.774395
   0.513026  1.210767E-02  0.774585
   0.515030  1.253040E-02  0.775158
   0.517034  1.240760E-02  0.776145
   0.519038  1.176007E-02  0.777540
   0.521042  1.065392E-02  0.779299
   0.523046  9.193557E-03  0.781347
   0.525050  7.511273E-03  0.783584
   0.527054  5.755417E-03  0.785895
   0.529058  4.076803E-03  0.788162
   0.531062  2.615237E-03  0.790272
   0.533066  1.486918E-03  0.792127
   0.535070  7.745771E-04  0.793655
   0.537074  5.203612E-04  0.794817
   0.539078  7.234372E-04  0.795606
   0.541082  1.341449E-03  0.796046
   0.543086  2.296192E-03  0.796196
   0.545090  3.482541E-03  0.796135
   0.547094  4.779133E-03  0.795956
   0.549098  6.060387E-03  0.795761
   0.551102  7.207535E-03  0.795645
   0.553106  8.118620E-03  0.795694
   0.555110  8.716520E-03  0.795974
   0.557114  8.954020E-03  0.796528
   0.559118  8.816476E-03  0.797376
   0.561122  8.321695E-03  0.798508
   0.563126  7.517256E-03  0.799892
   0.565130  6.475635E-03  0.801473
   0.567134  5.287639E-03  0.803181
   0.569138  4.053802E-03  0.804938
   0.571142  2.876274E-03  0.806660
   0.573146  1.849707E-03  0.808268
   0.575150  1.052907E-03  0.809697
   0.577154  5.427726E-04  0.810896
   0.579158  3.495530E-04  0.811836
   0.581162  4.750215E-04  0.812509
   0.583166  8.932416E-04  0.812933
   0.585170  1.553777E-03  0.813145
   0.587174  2.387204E-03  0.813198
   0.589178  3.311869E-03  0.813156
   0.591182  4.241367E-03  0.813089
   0.593186  5.092367E-03  0.813067
   0.595190  5.791222E-03  0.813151
   0.597194  6.279755E-03  0.813392
   0.599198  6.519490E-03  0.813825
   0.601202  6.493878E-03  0.814469
   0.603206  6.208914E-03  0.815321
   0.605210  5.691886E-03  0.816364
   0.607214  4.988487E-03  0.817564
   0.609218  4.158741E-03  0.818873
   0.611222  3.271421E-03  0.820236
   0.613226  2.398492E-03  0.821595
   0.615230  1.608987E-03  0.822892
   0.617234  9.631545E-04  0.824075
   0.619238  5.076446E-04  0.825104
   0.621242  2.719713E-04  0.825951
   0.623246  2.662857E-04  0.826604
   0.625251  4.811778E-04  0.827068
   0.627255  8.890122E-04  0.827362
   0.629259  1.446903E-03  0.827519
   0.631263  2.100925E-03  0.827583
   0.633267  2.790948E-03  0.827602
   0.635271  3.455885E-03  0.827627
   0.637275  4.038847E-03  0.827707
   0.639279  4.491506E-03  0.827882
   0.641283  4.777732E-03  0.828186
   0.643287  4.876113E-03  0.828638
   0.645291  4.781063E-03  0.829248
   0.647295  4.502853E-03  0.830008
   0.649299  4.066318E-03  0.830902
   0.651303  3.508438E-03  0.831899
   0.653307  2.875189E-03  0.832963
   0.655311  2.217452E-03  0.834053
   0.657315  1.586981E-03  0.835126
   0.659319  1.032109E-03  0.836139
   0.661323  5.937763E-04  0.837057
   0.663327  3.024759E-04  0.837854
   0.665331  1.759283E-04  0.838511
   0.667335  2.178624E-04  0.839024
   0.669339  4.181826E-04  0.839397
   0.671343  7.541575E-04  0.839649
   0.673347  1.192644E-03  0.839805
   0.675351  1.693210E-03  0.839898
   0.677355  2.211555E-03  0.839965
   0.679359  2.703377E-03  0.840044
   0.681363  3.127750E-03  0.840169
   0.683367  3.450455E-03  0.840370
   0.685371  3.646363E-03  0.840672
   0.687375  3.701153E-03  0.841087
   0.689379  3.612169E-03  0.841620
   0.691383  3.388233E-03  0.842267
   0.693387  3.048648E-03  0.843011
   0.695391  2.621533E-03  0.843832
   0.697395  2.141270E-03  0.844701
   0.699399  1.645649E-03  0.845586
   0.701403  1.172967E-03  0.846455
   0.703407  7.587412E-04  0.847278
   0.705411  4.330587E-04  0.848028
   0.707415  2.182187E-04  0.848684
   0.709419  1.271749E-04  0.849234
   0.711423  1.626079E-04  0.849674
   0.713427  3.170435E-04  0.850008
   0.715431  5.736907E-04  0.850249
   0.717435  9.080761E-04  0.850416
   0.719439  1.290151E-03  0.850535
   0.721443  1.686930E-03  0.850633
   0.723447  2.065200E-03  0.850738
   0.725451  2.394067E-03  0.850878
   0.727455  2.647405E-03  0.851075
   0.729459  2.805723E-03  0.851347
   0.731463  2.857481E-03  0.851706
   0.733467  2.799775E-03  0.852156
   0.735471  2.638369E-03  0.852693
   0.737475  2.387005E-03  0.853308
   0.739479  2.066181E-03  0.853983
   0.741483  1.701329E-03  0.854698
   0.743487  1.320857E-03  0.855429
   0.745491  9.537848E-04  0.856151
   0.747495  6.274551E-04  0.856840
   0.749499  3.654424E-04  0.857476
   0.751503  1.857575E-04  0.858041
   0.753507  9.953973E-05  0.858525
   0.755511  1.103391E-04  0.858925
   0.757515  2.139836E-04  0.859241
   0.759519  3.991168E-04  0.859482
   0.761523  6.482652E-04  0.859663
   0.763527  9.393723E-04  0.859802
   0.765531  1.247649E-03  0.859919
   0.767535  1.547605E-03  0.860036
   0.769539  1.815014E-03  0.860176
   0.771543  2.028799E-03  0.860356
   0.773547  2.172568E-03  0.860592
   0.775551  2.235742E-03  0.860893
   0.777555  2.214222E-03  0.861265
   0.779559  2.110570E-03  0.861707
   0.781563  1.933631E-03  0.862212
   0.783567  1.697748E-03  0.862768
   0.785571  1.421480E-03  0.863361
   0.787575  1.126203E-03  0.863971
   0.789579  8.342848E-04  0.864581
   0.791583  5.673926E-04  0.865171
   0.793587  3.448568E-04  0.865724
   0.795591  1.821435E-04  0.866225
   0.797595  8.979551E-05  0.866666
   0.799599  7.265033E-05  0.867039
   0.801603  1.296313E-04  0.867346
   0.803607  2.539376E-04  0.867592
   0.805611  4.337210E-04  0.867785
   0.807615  6.530792E-04  0.867939
   0.809619  8.934722E-04  0.868069
   0.811623  1.135125E-03  0.868193
   0.813627  1.358629E-03  0.868328
   0.815631  1.546454E-03  0.868490
   0.817635  1.684177E-03  0.868690
   0.819639  1.761540E-03  0.868940
   0.821643  1.773150E-03  0.869244
   0.823647  1.718746E-03  0.869605
   0.825651  1.603160E-03  0.870018
   0.827655  1.435757E-03  0.870477
   0.829659  1.229708E-03  0.870970
   0.831663  1.000891E-03  0.871484
   0.833667  7.666267E-04  0.872004
   0.835671  5.442931E-04  0.872515
   0.837675  3.500710E-04  0.873003
   0.839679  1.976559E-04  0.873455
   0.841683  9.727522E-05  0.873862
   0.843687  5.498680E-05  0.874216
   0.845691  7.226155E-05  0.874518
   0.847695  1.459846E-04  0.874767
   0.849699  2.687864E-04  0.874971
   0.851703  4.296886E-04  0.875138
   0.853707  6.150545E-04  0.875279
   0.855711  8.096590E-04  0.875408
   0.857715  9.978897E-04  0.875538
   0.859719  1.164993E-03  0.875683
   0.861723  1.298105E-03  0.875854
   0.863727  1.387222E-03  0.876061
   0.865731  1.425896E-03  0.876309
   0.867736  1.411631E-03  0.876603
   0.869739  1.346001E-03  0.876940
   0.871744  1.234433E-03  0.877317
   0.873748  1.085753E-03  0.877728
   0.875751  9.114135E-04  0.878161
   0.877756  7.246337E-04  0.878607
   0.879760  5.392941E-04  0.879052
   0.881764  3.689677E-04  0.879485
   0.883768  2.258155E-04  0.879895
   0.885772  1.197175E-04  0.880272
   0.887776  5.757519E-05  0.880611
   0.889780  4.281088E-05  0.880906
   0.891784  7.520228E-05  0.881159
   0.893788  1.509439E-04  0.881372
   0.895792  2.630271E-04  0.881549
   0.897796  4.018391E-04  0.881701
   0.899800  5.559014E-04  0.881835
   0.901804  7.128615E-04  0.881963
   0.903808  8.603583E-04  0.882096
   0.905812  9.870096E-04  0.882245
   0.907816  1.083237E-03  0.882417
   0.909820  1.141918E-03  0.882621
   0.911824  1.158927E-03  0.882859
   0.913828  1.133333E-03  0.883134
   0.915832  1.067423E-03  0.883444
   0.917836  9.664991E-04  0.883784
   0.919840  8.383848E-04  0.884149
   0.921844  6.928048E-04  0.884530
   0.923848  5.406485E-04  0.884918
   0.925852  3.931130E-04  0.885302
   0.927856  2.608371E-04  0.885674
   0.929860  1.531500E-04  0.886024
   0.931864  7.736179E-05  0.886346
   0.933868  3.825058E-05  0.886635
   0.935872  3.775976E-05  0.886889
   0.937876  7.488537E-05  0.887108
   0.939880  1.458200E-04  0.887295
   0.941884  2.442790E-04  0.887455
   0.943888  3.620275E-04  0.887595
   0.945892  4.895511E-04  0.887725
   0.947896  6.167550E-04  0.887851
   0.949900  7.337885E-04  0.887984
   0.951904  8.317292E-04  0.888131
   0.953908  9.032596E-04  0.888300
   0.955912  9.431636E-04  0.888495
   0.957916  9.486971E-04  0.888719
   0.959920  9.197133E-04  0.888972
   0.961924  8.586804E-04  0.889254
   0.963928  7.703817E-04  0.889560
   0.965932  6.615704E-04  0.889884
   0.967936  5.404502E-04  0.890220
   0.969940  4.159609E-04  0.890560
   0.971944  2.971894E-04  0.890895
   0.973948  1.926100E-04  0.891218
   0.975952  1.095263E-04  0.891522
   0.977956  5.351376E-05  0.891801
   0.979960  2.802244E-05  0.892054
   0.981964  3.416586E-05  0.892276
   0.983968  7.068054E-05  0.892471
   0.985972  1.340507E-04  0.892640
   0.987976  2.188288E-04  0.892788
   0.989980  3.180611E-04  0.892920
   0.991984  4.238255E-04  0.893045
   0.993988  5.278812E-04  0.893168
   0.995992  6.222393E-04  0.893298
   0.997996  6.997887E-04  0.893441
   1.00000  7.547828E-04  0.893602
